#Wavelength              Voltage

6600.039062		0.000300
6600.039062		0.000250
6600.078125		0.000250
6600.078125		0.000300
6600.078125		0.000300
6600.117187		0.000300
6600.117187		0.000300
6600.117187		0.000250
6600.156250		0.000300
6600.156250		0.000250
6600.156250		0.000250
6600.195312		0.000300
6600.195312		0.000300
6600.234375		0.000250
6600.234375		0.000300
6600.234375		0.000250
6600.273437		0.000300
6600.273437		0.000250
6600.273437		0.000300
6600.312500		0.000300
6600.312500		0.000300
6600.351562		0.000250
6600.351562		0.000300
6600.351562		0.000300
6600.390625		0.000300
6600.390625		0.000300
6600.390625		0.000300
6600.429687		0.000300
6600.429687		0.000300
6600.429687		0.000300
6600.468750		0.000300
6600.468750		0.000350
6600.468750		0.000350
6600.507812		0.000350
6600.507812		0.000350
6600.507812		0.000350
6600.546875		0.000350
6600.546875		0.000300
6600.585937		0.000350
6600.585937		0.000350
6600.585937		0.000350
6600.625000		0.000350
6600.625000		0.000350
6600.625000		0.000350
6600.664062		0.000350
6600.664062		0.000350
6600.703125		0.000350
6600.703125		0.000400
6600.703125		0.000350
6600.742187		0.000400
6600.742187		0.000400
6600.742187		0.000350
6600.781250		0.000400
6600.781250		0.000400
6600.781250		0.000400
6600.820312		0.000400
6600.820312		0.000500
6600.820312		0.000500
6600.859375		0.000500
6600.859375		0.000500
6600.859375		0.000500
6600.898437		0.000550
6600.898437		0.000550
6600.937500		0.000500
6600.937500		0.000500
6600.937500		0.000550
6600.976562		0.000550
6600.976562		0.000550
6600.976562		0.000550
6601.015625		0.000550
6601.015625		0.000600
6601.054687		0.000600
6601.054687		0.000600
6601.054687		0.000600
6601.093750		0.000600
6601.093750		0.000650
6601.093750		0.000650
6601.132812		0.000750
6601.132812		0.000750
6601.171875		0.000750
6601.171875		0.000750
6601.171875		0.000750
6601.210937		0.000800
6601.210937		0.000800
6601.210937		0.000800
6601.250000		0.000800
6601.250000		0.000850
6601.250000		0.000850
6601.289062		0.000850
6601.289062		0.000850
6601.289062		0.000850
6601.328125		0.000900
6601.328125		0.000900
6601.328125		0.000900
6601.367187		0.001000
6601.367187		0.001000
6601.367187		0.001000
6601.406250		0.001050
6601.406250		0.001100
6601.445312		0.001050
6601.445312		0.001100
6601.445312		0.001100
6601.445312		0.001100
6601.484375		0.001250
6601.484375		0.001250
6601.523437		0.001300
6601.523437		0.001300
6601.523437		0.001350
6601.562500		0.001350
6601.562500		0.001500
6601.562500		0.001500
6601.601562		0.001600
6601.601562		0.001750
6601.601562		0.001800
6601.640625		0.001850
6601.640625		0.002000
6601.640625		0.002100
6601.640625		0.002400
6601.679687		0.002650
6601.679687		0.003000
6601.679687		0.003250
6601.718750		0.003500
6601.718750		0.003750
6601.718750		0.003750
6601.757812		0.003750
6601.757812		0.003750
6601.796875		0.004000
6601.796875		0.004150
6601.796875		0.004550
6601.835937		0.004850
6601.835937		0.005150
6601.875000		0.005550
6601.875000		0.005850
6601.875000		0.006300
6601.914062		0.006600
6601.914062		0.007050
6601.914062		0.007500
6601.953125		0.007900
6601.953125		0.008550
6601.953125		0.009150
6601.992187		0.010000
6601.992187		0.010550
6601.992187		0.011250
6602.031250		0.011850
6602.031250		0.012500
6602.031250		0.013000
6602.070312		0.013500
6602.070312		0.014000
6602.070312		0.014550
6602.070312		0.015050
6602.109375		0.015600
6602.109375		0.016200
6602.109375		0.016700
6602.148437		0.017450
6602.148437		0.018050
6602.148437		0.018750
6602.187500		0.019550
6602.187500		0.020450
6602.187500		0.021200
6602.226562		0.022050
6602.226562		0.022750
6602.265625		0.023700
6602.265625		0.024500
6602.265625		0.025500
6602.304687		0.026700
6602.304687		0.027700
6602.304687		0.028750
6602.343750		0.029950
6602.343750		0.031500
6602.343750		0.033350
6602.382812		0.035000
6602.382812		0.037050
6602.382812		0.039100
6602.421875		0.041200
6602.421875		0.043300
6602.421875		0.045600
6602.460937		0.048500
6602.460937		0.051200
6602.460937		0.054700
6602.500000		0.058650
6602.500000		0.065100
6602.500000		0.071150
6602.539062		0.075250
6602.539062		0.076600
6602.539062		0.078200
6602.578125		0.081650
6602.578125		0.084050
6602.617187		0.086550
6602.617187		0.088800
6602.617187		0.091400
6602.656250		0.093900
6602.656250		0.101300
6602.656250		0.102400
6602.695312		0.103400
6602.695312		0.104900
6602.695312		0.105800
6602.734375		0.107300
6602.734375		0.108200
6602.773437		0.119250
6602.773437		0.126050
6602.773437		0.130050
6602.812500		0.132750
6602.812500		0.134200
6602.812500		0.134200
6602.851562		0.134100
6602.851562		0.133250
6602.851562		0.131950
6602.890625		0.130250
6602.890625		0.126900
6602.890625		0.125050
6602.929687		0.121800
6602.929687		0.118750
6602.929687		0.116100
6602.968750		0.113100
6602.968750		0.109900
6602.968750		0.106550
6603.007812		0.103850
6603.007812		0.100450
6603.007812		0.097400
6603.046875		0.093600
6603.046875		0.090650
6603.085937		0.087350
6603.085937		0.082600
6603.085937		0.074250
6603.125000		0.069850
6603.125000		0.065000
6603.125000		0.061550
6603.164062		0.058400
6603.164062		0.055700
6603.203125		0.053300
6603.203125		0.051000
6603.242187		0.048750
6603.242187		0.046600
6603.242187		0.044750
6603.281250		0.042950
6603.281250		0.041450
6603.281250		0.041750
6603.320312		0.039700
6603.320312		0.037950
6603.320312		0.036350
6603.320312		0.035050
6603.359375		0.033800
6603.359375		0.033050
6603.359375		0.032100
6603.398437		0.031450
6603.398437		0.030600
6603.398437		0.030050
6603.437500		0.029200
6603.437500		0.029100
6603.437500		0.028250
6603.476562		0.028600
6603.476562		0.028050
6603.515625		0.027300
6603.515625		0.026600
6603.515625		0.025950
6603.554687		0.025250
6603.554687		0.024700
6603.554687		0.024450
6603.593750		0.024100
6603.593750		0.023600
6603.593750		0.023750
6603.593750		0.023200
6603.632812		0.022750
6603.632812		0.022550
6603.632812		0.022100
6603.671875		0.023200
6603.671875		0.022200
6603.671875		0.021550
6603.710937		0.022100
6603.710937		0.021500
6603.710937		0.020800
6603.750000		0.020450
6603.750000		0.019950
6603.750000		0.019600
6603.789062		0.019300
6603.789062		0.019100
6603.789062		0.019000
6603.828125		0.018950
6603.828125		0.018800
6603.828125		0.018750
6603.867187		0.019000
6603.867187		0.020300
6603.867187		0.021100
6603.906250		0.021750
6603.906250		0.021000
6603.945312		0.020050
6603.945312		0.019200
6603.945312		0.018950
6603.984375		0.018800
6603.984375		0.019700
6603.984375		0.020000
6604.023437		0.019700
6604.023437		0.019350
6604.023437		0.019600
6604.062500		0.020050
6604.062500		0.020000
6604.062500		0.020250
6604.101562		0.020300
6604.101562		0.020450
6604.101562		0.020750
6604.140625		0.021950
6604.140625		0.023950
6604.140625		0.025450
6604.179687		0.026700
6604.179687		0.027600
6604.179687		0.027850
6604.218750		0.027600
6604.218750		0.027300
6604.218750		0.027600
6604.257812		0.029250
6604.257812		0.029950
6604.257812		0.030800
6604.296875		0.032000
6604.296875		0.034750
6604.296875		0.036950
6604.335937		0.038000
6604.335937		0.040800
6604.375000		0.045550
6604.375000		0.049250
6604.375000		0.052400
6604.414062		0.055400
6604.414062		0.058250
6604.414062		0.060500
6604.453125		0.063250
6604.453125		0.065750
6604.453125		0.068350
6604.492187		0.070950
6604.492187		0.073950
6604.492187		0.075850
6604.531250		0.078450
6604.531250		0.080600
6604.531250		0.082850
6604.570312		0.084400
6604.570312		0.086050
6604.570312		0.087700
6604.570312		0.089700
6604.609375		0.090300
6604.609375		0.091450
6604.609375		0.092150
6604.648437		0.092550
6604.648437		0.092350
6604.648437		0.092050
6604.687500		0.091950
6604.687500		0.091150
6604.687500		0.091150
6604.726562		0.090150
6604.726562		0.088600
6604.726562		0.087450
6604.765625		0.086650
6604.765625		0.085100
6604.765625		0.083650
6604.804687		0.081700
6604.804687		0.079600
6604.804687		0.077600
6604.843750		0.075450
6604.843750		0.073150
6604.843750		0.070850
6604.882812		0.068850
6604.882812		0.066750
6604.882812		0.064350
6604.921875		0.062250
6604.921875		0.059950
6604.921875		0.057950
6604.960937		0.055700
6604.960937		0.053750
6604.960937		0.051950
6605.000000		0.050200
6605.000000		0.048200
6605.000000		0.045800
6605.039062		0.043450
6605.039062		0.042300
6605.039062		0.038550
6605.078125		0.035500
6605.078125		0.033850
6605.078125		0.032250
6605.117187		0.033100
6605.117187		0.033300
6605.117187		0.032850
6605.156250		0.032100
6605.156250		0.031200
6605.156250		0.030450
6605.195312		0.029600
6605.195312		0.028600
6605.195312		0.027850
6605.234375		0.027100
6605.234375		0.026350
6605.234375		0.025750
6605.273437		0.025000
6605.273437		0.024300
6605.273437		0.023700
6605.312500		0.023250
6605.312500		0.022800
6605.312500		0.022200
6605.351562		0.021800
6605.351562		0.021300
6605.351562		0.020750
6605.390625		0.020300
6605.390625		0.019850
6605.390625		0.019300
6605.429687		0.018950
6605.429687		0.018450
6605.429687		0.018000
6605.468750		0.017600
6605.468750		0.017200
6605.468750		0.016800
6605.507812		0.016450
6605.507812		0.016000
6605.507812		0.015650
6605.546875		0.015250
6605.546875		0.014850
6605.546875		0.014550
6605.585937		0.014100
6605.585937		0.013650
6605.585937		0.013350
6605.625000		0.012900
6605.625000		0.012600
6605.625000		0.012300
6605.625000		0.011800
6605.664062		0.011350
6605.664062		0.011000
6605.664062		0.010500
6605.703125		0.010100
6605.703125		0.009750
6605.703125		0.009350
6605.742187		0.009000
6605.742187		0.008600
6605.742187		0.008250
6605.781250		0.007900
6605.781250		0.007550
6605.781250		0.007250
6605.820312		0.006850
6605.820312		0.006250
6605.820312		0.005600
6605.820312		0.005350
6605.859375		0.004850
6605.859375		0.004550
6605.898437		0.004400
6605.898437		0.004150
6605.898437		0.004100
6605.937500		0.003900
6605.937500		0.003800
6605.937500		0.003550
6605.976562		0.003550
6605.976562		0.003400
6605.976562		0.003350
6606.015625		0.003250
6606.015625		0.003150
6606.015625		0.003050
6606.054687		0.002900
6606.054687		0.002800
6606.054687		0.002650
6606.093750		0.002550
6606.093750		0.002400
6606.093750		0.002300
6606.132812		0.002250
6606.132812		0.002100
6606.132812		0.002000
6606.171875		0.001900
6606.171875		0.001800
6606.171875		0.001750
6606.210937		0.001600
6606.210937		0.001600
6606.210937		0.001500
6606.210937		0.001400
6606.250000		0.001350
6606.250000		0.001350
6606.250000		0.001250
6606.289062		0.001250
6606.289062		0.001250
6606.289062		0.001150
6606.328125		0.001050
6606.328125		0.001050
6606.328125		0.001000
6606.367187		0.000900
6606.367187		0.000900
6606.367187		0.000900
6606.406250		0.000850
6606.406250		0.000850
6606.406250		0.000850
6606.445312		0.000850
6606.445312		0.000800
6606.445312		0.000800
6606.484375		0.000750
6606.484375		0.000750
6606.484375		0.000650
6606.523437		0.000650
6606.523437		0.000650
6606.523437		0.000650
6606.562500		0.000650
6606.562500		0.000600
6606.562500		0.000650
6606.601562		0.000650
6606.601562		0.000600
6606.601562		0.000600
6606.640625		0.000550
6606.640625		0.000500
6606.640625		0.000500
6606.679687		0.000500
6606.679687		0.000500
6606.679687		0.000500
6606.718750		0.000500
6606.718750		0.000500
6606.718750		0.000550
6606.757812		0.000500
6606.757812		0.000500
6606.757812		0.000500
6606.796875		0.000500
6606.796875		0.000500
6606.796875		0.000500
6606.835937		0.000400
6606.835937		0.000400
6606.835937		0.000400
6606.875000		0.000400
6606.875000		0.000400
6606.875000		0.000350
6606.914062		0.000400
6606.914062		0.000400
